GIMP Gradient
Name: Spectral_11
11
0.000000 0.045450 0.090900 0.619608 0.003922 0.258824 1.000000 0.619608 0.003922 0.258824 1.000000 0 0
0.090900 0.136350 0.181800 0.835294 0.243137 0.309804 1.000000 0.835294 0.243137 0.309804 1.000000 0 0
0.181800 0.227250 0.272700 0.956863 0.427451 0.262745 1.000000 0.956863 0.427451 0.262745 1.000000 0 0
0.272700 0.318150 0.363600 0.992157 0.682353 0.380392 1.000000 0.992157 0.682353 0.380392 1.000000 0 0
0.363600 0.409050 0.454500 0.996078 0.878431 0.545098 1.000000 0.996078 0.878431 0.545098 1.000000 0 0
0.454500 0.500000 0.545500 1.000000 1.000000 0.749020 1.000000 1.000000 1.000000 0.749020 1.000000 0 0
0.545500 0.590950 0.636400 0.901961 0.960784 0.596078 1.000000 0.901961 0.960784 0.596078 1.000000 0 0
0.636400 0.681850 0.727300 0.670588 0.866667 0.643137 1.000000 0.670588 0.866667 0.643137 1.000000 0 0
0.727300 0.772750 0.818200 0.400000 0.760784 0.647059 1.000000 0.400000 0.760784 0.647059 1.000000 0 0
0.818200 0.863650 0.909100 0.196078 0.533333 0.741176 1.000000 0.196078 0.533333 0.741176 1.000000 0 0
0.909100 0.954550 1.000000 0.368627 0.309804 0.635294 1.000000 0.368627 0.309804 0.635294 1.000000 0 0
